# frek [Hz] rms U2 [V]
10000 +1.20050275E-04
11000 +1.26611338E-04
12000 +1.34232081E-04
13000 +1.43931434E-04
14000 +1.53691928E-04
15000 +1.64163139E-04
16000 +1.80886558E-04
17000 +1.81035677E-04
18000 +2.15715241E-04
19000 +2.45360751E-04
20000 +2.57917293E-04
21000 +2.82449907E-04
22000 +2.93957919E-04
23000 +3.45987291E-04
24000 +3.78992636E-04
25000 +4.18526839E-04
26000 +4.63377463E-04
27000 +5.13563375E-04
28000 +5.69721055E-04
29000 +6.32465520E-04
30000 +7.04180636E-04
31000 +7.84249598E-04
32000 +8.75615783E-04
33000 +9.78285098E-04
34000 +1.09564312E-03
35000 +1.22968948E-03
36000 +1.38216625E-03
37000 +1.55831436E-03
38000 +1.76229118E-03
39000 +1.99791121E-03
40000 +2.27370993E-03
41000 +2.59791382E-03
42000 +2.98188094E-03
43000 +3.44015113E-03
44000 +3.99163538E-03
45000 +4.66381628E-03
46000 +5.49190431E-03
47000 +6.52685561E-03
48000 +7.84271341E-03
49000 +9.54906093E-03
50000 +1.18179306E-02
51000 +1.49301506E-02
52000 +1.93716818E-02
53000 +2.60566231E-02
54000 +3.69014204E-02
55000 +5.65219287E-02
56000 +9.79638487E-02
57000 +1.85289943E-01
58000 +1.83356595E-01
59000 +1.23934019E-01
60000 +9.65027973E-02
61000 +8.45027305E-02
62000 +8.05271983E-02
63000 +8.22359391E-02
64000 +8.98274578E-02
65000 +1.05969551E-01
66000 +1.37963015E-01
67000 +1.99860050E-01
68000 +2.29153468E-01
69000 +1.45275782E-01
70000 +9.02453445E-02
71000 +6.22093998E-02
72000 +4.62953202E-02
73000 +3.62944487E-02
74000 +2.95257153E-02
75000 +2.46906048E-02
76000 +2.10886929E-02
77000 +1.83296021E-02
78000 +1.61449023E-02
79000 +1.43825617E-02
80000 +1.29375943E-02
81000 +1.17326346E-02
82000 +1.07183813E-02
83000 +9.85249905E-03
84000 +9.10538305E-03
85000 +8.45481195E-03
86000 +7.88880847E-03
87000 +7.39076086E-03
88000 +6.95007858E-03
89000 +6.55720495E-03
90000 +6.20486550E-03
91000 +5.88767189E-03
92000 +5.60022546E-03
93000 +5.34041063E-03
94000 +5.10332263E-03
95000 +4.88734469E-03
96000 +4.68923040E-03
97000 +4.50630062E-03
98000 +4.33772299E-03
99000 +4.18047532E-03
100000 +4.03470043E-03
