# frek [Hz] rms U2 [V]
10000 +1.96184874E-04
11000 +1.97950115E-04
12000 +2.00972984E-04
13000 +2.05732817E-04
14000 +2.09100192E-04
15000 +2.14151645E-04
16000 +2.18236900E-04
17000 +2.25663411E-04
18000 +2.32222478E-04
19000 +2.39838588E-04
20000 +2.48222993E-04
21000 +2.58694391E-04
22000 +2.76778085E-04
23000 +2.81236952E-04
24000 +2.91719509E-04
25000 +3.04718729E-04
26000 +3.20036983E-04
27000 +3.36660614E-04
28000 +3.55329170E-04
29000 +3.75500714E-04
30000 +3.97922395E-04
31000 +4.22137073E-04
32000 +4.49446653E-04
33000 +4.79632968E-04
34000 +5.13540400E-04
35000 +5.49953344E-04
36000 +5.90981980E-04
37000 +6.36849110E-04
38000 +6.88965595E-04
39000 +7.47846498E-04
40000 +8.12989677E-04
41000 +8.87227367E-04
42000 +9.71726509E-04
43000 +1.06730217E-03
44000 +1.17740061E-03
45000 +1.30474867E-03
46000 +1.45138133E-03
47000 +1.62264705E-03
48000 +1.82517046E-03
49000 +2.06515954E-03
50000 +2.35265652E-03
51000 +2.70046524E-03
52000 +3.12723326E-03
53000 +3.65838150E-03
54000 +4.33029667E-03
55000 +5.19717955E-03
56000 +6.34069522E-03
57000 +7.89023060E-03
58000 +1.00637190E-02
59000 +1.32433766E-02
60000 +1.81496209E-02
61000 +2.62903187E-02
62000 +4.12262425E-02
63000 +7.27417693E-02
64000 +1.47552148E-01
65000 +2.38598342E-01
66000 +2.24481092E-01
67000 +2.32815367E-01
68000 +2.10204712E-01
69000 +1.12851477E-01
70000 +6.18334990E-02
71000 +3.85967541E-02
72000 +2.65140438E-02
73000 +1.94631565E-02
74000 +1.49876164E-02
75000 +1.19649927E-02
76000 +9.82307084E-03
77000 +8.24694047E-03
78000 +7.05770403E-03
79000 +6.13258695E-03
80000 +5.39863547E-03
81000 +4.80752070E-03
82000 +4.32245717E-03
83000 +3.92069020E-03
84000 +3.58237906E-03
85000 +3.29580454E-03
86000 +3.05038437E-03
87000 +2.83860159E-03
88000 +2.65483002E-03
89000 +2.49337945E-03
90000 +2.35137441E-03
91000 +2.22557115E-03
92000 +2.11360718E-03
93000 +2.01310078E-03
94000 +1.92277690E-03
95000 +1.84173360E-03
96000 +1.76798431E-03
97000 +1.70049273E-03
98000 +1.63948979E-03
99000 +1.58337153E-03
100000 +1.53148627E-03
