# frek [Hz] rms U2 [V]
10000 +1.28162888E-04
11000 +1.37403075E-04
12000 +1.48423076E-04
13000 +1.48559183E-04
14000 +1.61404719E-04
15000 +1.74816957E-04
16000 +1.91156821E-04
17000 +2.09971721E-04
18000 +2.32520503E-04
19000 +2.54748837E-04
20000 +2.81293475E-04
21000 +3.11858850E-04
22000 +3.48142502E-04
23000 +3.87751064E-04
24000 +4.28496397E-04
25000 +4.77163249E-04
26000 +5.32495184E-04
27000 +5.94907877E-04
28000 +6.66129770E-04
29000 +7.45516928E-04
30000 +8.36284627E-04
31000 +9.38837632E-04
32000 +1.05600135E-03
33000 +1.19158957E-03
34000 +1.35092955E-03
35000 +1.52810321E-03
36000 +1.73187635E-03
37000 +1.96578891E-03
38000 +2.23581300E-03
39000 +2.56364669E-03
40000 +2.94991781E-03
41000 +3.41100669E-03
42000 +3.96482735E-03
43000 +4.63875425E-03
44000 +5.46779665E-03
45000 +6.50098259E-03
46000 +7.81311034E-03
47000 +9.51236682E-03
48000 +1.17635196E-02
49000 +1.48511035E-02
50000 +1.92463810E-02
51000 +2.58665077E-02
52000 +3.66217829E-02
53000 +5.61714165E-02
54000 +9.72488590E-02
55000 +1.73903199E-01
56000 +1.55619219E-01
57000 +1.05978733E-01
58000 +8.24170165E-02
59000 +7.10643604E-02
60000 +6.58487454E-02
61000 +6.45023145E-02
62000 +6.62936829E-02
63000 +7.19550289E-02
64000 +8.19208488E-02
65000 +9.98144493E-02
66000 +1.33486909E-01
67000 +1.97475441E-01
68000 +2.29114464E-01
69000 +1.46985866E-01
70000 +9.25057076E-02
71000 +6.44978210E-02
72000 +4.84665215E-02
73000 +3.83170933E-02
74000 +3.13989643E-02
75000 +2.64211074E-02
76000 +2.26918608E-02
77000 +1.98071560E-02
78000 +1.75242851E-02
79000 +1.56738408E-02
80000 +1.41450445E-02
81000 +1.28638456E-02
82000 +1.17820936E-02
83000 +1.08582906E-02
84000 +1.00614170E-02
85000 +9.37241418E-03
86000 +8.76420178E-03
87000 +8.22419999E-03
88000 +7.74395866E-03
89000 +7.31516499E-03
90000 +6.93482417E-03
91000 +6.58952044E-03
92000 +6.27552634E-03
93000 +5.98985595E-03
94000 +5.72717176E-03
95000 +5.48686725E-03
96000 +5.26499837E-03
97000 +5.06069912E-03
98000 +4.87154387E-03
99000 +4.69746636E-03
100000 +4.53759683E-03
