# frek [Hz] rms U2 [V]
55000 +5.64528726E-02
55100 +5.92595141E-02
55200 +6.22986339E-02
55300 +6.56046890E-02
55400 +6.91476941E-02
55500 +7.29862712E-02
55600 +7.71602869E-02
55700 +8.16893160E-02
55800 +8.65632743E-02
55900 +9.20023575E-02
56000 +9.79631238E-02
56100 +1.04387609E-01
56200 +1.11390229E-01
56300 +1.18995303E-01
56400 +1.27113977E-01
56500 +1.35956313E-01
56600 +1.45375125E-01
56700 +1.55243976E-01
56800 +1.65387593E-01
56900 +1.75471966E-01
57000 +1.85077412E-01
57100 +1.93695433E-01
57200 +2.00737618E-01
57300 +2.05583204E-01
57400 +2.08178495E-01
57500 +2.08379431E-01
57600 +2.06240186E-01
57700 +2.02117255E-01
57800 +1.96493082E-01
57900 +1.89893064E-01
58000 +1.82526292E-01
58100 +1.75122556E-01
58200 +1.67846046E-01
58300 +1.60918573E-01
58400 +1.54403077E-01
58500 +1.48226358E-01
58600 +1.42479776E-01
58700 +1.37109041E-01
58800 +1.32166752E-01
58900 +1.27601409E-01
59000 +1.23387444E-01
59100 +1.19837852E-01
59200 +1.16285203E-01
59300 +1.13004150E-01
59400 +1.09993663E-01
59500 +1.07206874E-01
59600 +1.04656059E-01
59700 +1.02269942E-01
59800 +1.00087788E-01
59900 +9.81987312E-02
60000 +9.63583350E-02
60100 +9.46591295E-02
60200 +9.31193165E-02
60300 +9.16814849E-02
60400 +9.03387375E-02
60500 +8.91089290E-02
60600 +8.79927613E-02
60700 +8.69947046E-02
60800 +8.60726669E-02
60900 +8.52155484E-02
61000 +8.44180003E-02
61100 +8.37303214E-02
61200 +8.31143029E-02
61300 +8.25691141E-02
61400 +8.21318440E-02
61500 +8.17194693E-02
61600 +8.13675851E-02
61700 +8.10632788E-02
61800 +8.07639025E-02
61900 +8.05854179E-02
62000 +8.04955237E-02
62100 +8.04566354E-02
62200 +8.04491550E-02
62300 +8.04875158E-02
62400 +8.05817135E-02
62500 +8.07275325E-02
62600 +8.09215404E-02
62700 +8.11568625E-02
62800 +8.14297460E-02
62900 +8.18030179E-02
63000 +8.21686186E-02
63100 +8.26402575E-02
63200 +8.31732914E-02
63300 +8.37892160E-02
63400 +8.44095476E-02
63500 +8.51264246E-02
63600 +8.59029420E-02
63700 +8.68289471E-02
63800 +8.77709180E-02
63900 +8.86468939E-02
64000 +8.97146046E-02
64100 +9.09124017E-02
64200 +9.22353067E-02
64300 +9.34511036E-02
64400 +9.48867299E-02
64500 +9.64928277E-02
64600 +9.80775900E-02
64700 +9.98887561E-02
64800 +1.01766473E-01
64900 +1.03879122E-01
65000 +1.05970410E-01
65100 +1.08262931E-01
65200 +1.10727482E-01
65300 +1.13259359E-01
65400 +1.16303707E-01
65500 +1.19423201E-01
65600 +1.22582065E-01
65700 +1.26111805E-01
65800 +1.29876961E-01
65900 +1.33422330E-01
66000 +1.37729484E-01
66100 +1.42323945E-01
66200 +1.47251795E-01
66300 +1.52554816E-01
66400 +1.58875149E-01
66500 +1.65057389E-01
66600 +1.71611841E-01
66700 +1.78449211E-01
66800 +1.85581496E-01
66900 +1.92983349E-01
67000 +2.00486392E-01
67100 +2.07999465E-01
67200 +2.15255700E-01
67300 +2.21984807E-01
67400 +2.27878369E-01
67500 +2.32561277E-01
67600 +2.35721725E-01
67700 +2.37049787E-01
67800 +2.36339217E-01
67900 +2.33600771E-01
68000 +2.28950138E-01
68100 +2.22635143E-01
68200 +2.15015602E-01
68300 +2.06478830E-01
68400 +1.97387169E-01
68500 +1.88053763E-01
68600 +1.78604408E-01
68700 +1.69434951E-01
68800 +1.60135624E-01
68900 +1.52053441E-01
69000 +1.44283330E-01
69100 +1.36970609E-01
69200 +1.30108711E-01
69300 +1.23723231E-01
69400 +1.17908309E-01
69500 +1.12363416E-01
69600 +1.07134955E-01
69700 +1.02091052E-01
69800 +9.77974534E-02
69900 +9.36497264E-02
70000 +8.97577979E-02
