# frek [Hz] rms U2 [V]
60000 +6.95131145E-02
60100 +7.35522524E-02
60200 +7.79195584E-02
60300 +8.26740652E-02
60400 +8.78545627E-02
60500 +9.35045160E-02
60600 +9.96711187E-02
60700 +1.06389213E-01
60800 +1.13712940E-01
60900 +1.21576096E-01
61000 +1.30208810E-01
61100 +1.39526811E-01
61200 +1.49489731E-01
61300 +1.60019511E-01
61400 +1.70966505E-01
61500 +1.82097086E-01
61600 +1.93070439E-01
61700 +2.03475030E-01
61800 +2.12759858E-01
61900 +2.20453492E-01
62000 +2.26099825E-01
62100 +2.29467335E-01
62200 +2.30510426E-01
62300 +2.29378396E-01
62400 +2.26449178E-01
62500 +2.22145352E-01
62600 +2.16875464E-01
62700 +2.11040547E-01
62800 +2.04978345E-01
62900 +1.98889807E-01
63000 +1.92974158E-01
63100 +1.87341617E-01
63200 +1.82037288E-01
63300 +1.77132167E-01
63400 +1.72603226E-01
63500 +1.68491101E-01
63600 +1.64758663E-01
63700 +1.61410613E-01
63800 +1.58425982E-01
63900 +1.55781136E-01
64000 +1.53469649E-01
64100 +1.51455094E-01
64200 +1.49756439E-01
64300 +1.48328444E-01
64400 +1.47171979E-01
64500 +1.46281910E-01
64600 +1.45641561E-01
64700 +1.45244806E-01
64800 +1.45105614E-01
64900 +1.45204574E-01
65000 +1.45556763E-01
65100 +1.46154673E-01
65200 +1.46981952E-01
65300 +1.48072562E-01
65400 +1.49410887E-01
65500 +1.51015207E-01
65600 +1.52887291E-01
65700 +1.55036443E-01
65800 +1.57486556E-01
65900 +1.60245708E-01
66000 +1.63313828E-01
66100 +1.66719083E-01
66200 +1.70464779E-01
66300 +1.74558543E-01
66400 +1.79005489E-01
66500 +1.83822544E-01
66600 +1.88973452E-01
66700 +1.94446760E-01
66800 +2.00188023E-01
66900 +2.06131952E-01
67000 +2.12152977E-01
67100 +2.18101905E-01
67200 +2.23739175E-01
67300 +2.28846951E-01
67400 +2.33077264E-01
67500 +2.36074018E-01
67600 +2.37544373E-01
67700 +2.37236941E-01
67800 +2.34944637E-01
67900 +2.30720948E-01
68000 +2.24683180E-01
68100 +2.17104700E-01
68200 +2.08390796E-01
68300 +1.98883061E-01
68400 +1.88957979E-01
68500 +1.78963371E-01
68600 +1.69083694E-01
68700 +1.59514964E-01
68800 +1.50400133E-01
68900 +1.41780154E-01
69000 +1.33694176E-01
69100 +1.26149067E-01
69200 +1.19132467E-01
69300 +1.12618824E-01
69400 +1.06592132E-01
69500 +1.01025619E-01
69600 +9.59538840E-02
69700 +9.11574714E-02
69800 +8.67304094E-02
69900 +8.25985231E-02
70000 +7.87717178E-02
