# frek [Hz] rms U2 [V]
58000 +8.47170077E-02
58100 +8.99488896E-02
58200 +9.56754059E-02
58300 +1.01919597E-01
58400 +1.08737583E-01
58500 +1.16182042E-01
58600 +1.24172974E-01
58700 +1.32968155E-01
58800 +1.42417531E-01
58900 +1.52503915E-01
59000 +1.63153368E-01
59100 +1.74149930E-01
59200 +1.85208261E-01
59300 +1.95851177E-01
59400 +2.05626848E-01
59500 +2.13884662E-01
59600 +2.20101021E-01
59700 +2.23846616E-01
59800 +2.24947231E-01
59900 +2.23543562E-01
60000 +2.19988191E-01
60100 +2.14773577E-01
60200 +2.08374363E-01
60300 +2.01316418E-01
60400 +1.93993933E-01
60500 +1.86663489E-01
60600 +1.79539022E-01
60700 +1.72753471E-01
60800 +1.66360308E-01
60900 +1.60390984E-01
61000 +1.54856777E-01
61100 +1.49763556E-01
61200 +1.45082319E-01
61300 +1.40795366E-01
61400 +1.36856848E-01
61500 +1.33262888E-01
61600 +1.29984018E-01
61700 +1.26993306E-01
61800 +1.24273751E-01
61900 +1.21797434E-01
62000 +1.19550554E-01
62100 +1.17506855E-01
62200 +1.15664695E-01
62300 +1.13998827E-01
62400 +1.12515043E-01
62500 +1.11179473E-01
62600 +1.10006599E-01
62700 +1.08969199E-01
62800 +1.08077409E-01
62900 +1.07314423E-01
63000 +1.06665679E-01
63100 +1.06139809E-01
63200 +1.05743448E-01
63300 +1.05458101E-01
63400 +1.05284916E-01
63500 +1.05212538E-01
63600 +1.05246121E-01
63700 +1.05389816E-01
63800 +1.05631312E-01
63900 +1.05987676E-01
64000 +1.06452677E-01
64100 +1.07035032E-01
64200 +1.07729292E-01
64300 +1.08531830E-01
64400 +1.09473501E-01
64500 +1.10517713E-01
64600 +1.11692560E-01
64700 +1.13010287E-01
64800 +1.14455818E-01
64900 +1.16053358E-01
65000 +1.17811745E-01
65100 +1.19744290E-01
65200 +1.21832066E-01
65300 +1.24114328E-01
65400 +1.26578201E-01
65500 +1.29272242E-01
65600 +1.32189628E-01
65700 +1.35353483E-01
65800 +1.38764763E-01
65900 +1.42466763E-01
66000 +1.46443813E-01
66100 +1.50730479E-01
66200 +1.55339223E-01
66300 +1.60308224E-01
66400 +1.64051710E-01
66500 +1.71302600E-01
66600 +1.77347237E-01
66700 +1.83724722E-01
66800 +1.90405722E-01
66900 +1.97311780E-01
67000 +2.04345870E-01
67100 +2.11354282E-01
67200 +2.18096970E-01
67300 +2.24311449E-01
67400 +2.29713286E-01
67500 +2.33933429E-01
67600 +2.36650853E-01
67700 +2.37568134E-01
67800 +2.36521171E-01
67900 +2.33455560E-01
68000 +2.28501908E-01
68100 +2.21907361E-01
68200 +2.14022924E-01
68300 +2.05197132E-01
68400 +1.95848146E-01
68500 +1.86291103E-01
68600 +1.76753099E-01
68700 +1.67454357E-01
68800 +1.58502403E-01
68900 +1.49997225E-01
69000 +1.41976106E-01
69100 +1.34454624E-01
69200 +1.27428792E-01
69300 +1.20903987E-01
69400 +1.14815997E-01
69500 +1.09170054E-01
69600 +1.03920511E-01
69700 +9.91873555E-02
69800 +9.46611427E-02
69900 +9.04321335E-02
70000 +8.64812024E-02
